,far red absorbing state
Wavelength [nm],?fr
215.709,6651.788
216.248,6615.136
216.786,6578.552
217.325,6541.9
217.863,6505.316
218.401,6468.732
218.94,6432.08
219.478,6395.496
220.016,6358.912
220.554,6322.328
221.091,6285.812
221.629,6249.228
222.167,6212.644
222.704,6176.128
223.242,6139.544
223.779,6103.028
224.316,6066.512
224.853,6029.996
225.39,5993.48
225.927,5956.964
226.464,5920.448
227,5884
227.537,5847.484
228.073,5811.036
228.61,5774.52
229.146,5738.072
229.682,5701.624
230.218,5665.176
230.754,5628.728
231.29,5592.28
231.826,5555.832
232.361,5519.452
232.897,5483.004
233.432,5446.624
233.967,5410.244
234.503,5373.796
235.038,5337.416
235.573,5301.036
236.108,5264.656
236.642,5228.344
237.177,5191.964
237.712,5155.584
238.246,5119.272
238.781,5082.892
239.315,5046.58
239.849,5010.268
240.383,4973.956
240.917,4937.644
241.451,4901.332
241.985,4865.02
242.518,4828.776
243.052,4792.464
243.585,4756.22
244.119,4719.908
244.652,4683.664
245.185,4647.42
245.718,4611.176
246.251,4574.932
246.784,4538.688
247.317,4502.444
247.849,4466.268
248.382,4430.024
248.914,4393.848
249.447,4357.604
249.979,4321.428
250.511,4285.252
251.043,4249.076
251.575,4212.9
252.107,4176.724
252.638,4140.616
253.17,4104.44
253.701,4068.332
254.233,4032.156
254.764,3996.048
255.295,3959.94
255.826,3923.832
256.357,3887.724
256.888,3851.616
257.419,3815.508
257.949,3779.468
258.48,3743.36
259.01,3707.32
259.541,3671.212
260.071,3635.172
260.601,3599.132
261.131,3563.092
261.661,3527.052
262.191,3491.012
262.721,3454.972
263.25,3419
263.78,3382.96
264.309,3346.988
264.839,3310.948
265.368,3274.976
265.897,3239.004
266.426,3203.032
266.955,3167.06
267.484,3131.088
268.012,3095.184
268.541,3059.212
269.069,3023.308
269.598,2987.336
270.126,2951.432
270.654,2915.528
271.182,2879.624
271.71,2843.72
272.238,2807.816
272.766,2771.912
273.293,2736.076
273.821,2700.172
274.348,2664.336
274.876,2628.432
275.403,2592.596
275.93,2556.76
276.457,2520.924
276.984,2485.088
277.511,2449.252
278.038,2413.416
278.564,2377.648
279.091,2341.812
279.617,2306.044
280.144,2270.208
280.67,2234.44
281.196,2198.672
281.722,2162.904
282.248,2127.136
282.774,2091.368
283.299,2055.668
283.825,2019.9
284.35,1984.2
284.876,1948.432
285.401,1912.732
285.926,1877.032
286.451,1841.332
286.976,1805.632
287.501,1769.932
288.026,1734.232
288.55,1698.6
289.075,1662.9
289.599,1627.268
290.124,1591.568
290.648,1555.936
291.172,1520.304
291.696,1484.672
292.22,1449.04
292.744,1413.408
293.268,1377.776
293.791,1342.212
294.315,1306.58
294.838,1271.016
295.362,1235.384
295.885,1199.82
296.408,1164.256
296.931,1128.692
297.454,1093.128
297.977,1057.564
298.499,1022.068
299.022,986.504
299.544,951.008
300.067,915.444
300.589,879.948
301.111,844.452
301.633,808.956
302.155,777.955
302.677,757.597
303.199,737.239
303.72,716.92
304.242,701.402
304.763,691.503
305.285,681.585
305.806,671.686
306.327,664.2395
306.848,658.248
307.369,652.2565
307.89,646.265
308.411,637.8075
308.931,628.7075
309.452,619.59
309.972,610.49
310.493,607.2885
311.013,604.4285
311.533,601.5685
312.053,598.205
312.573,590.405
313.093,582.605
313.612,574.82
314.132,566.69
314.651,557.6075
315.171,548.5075
315.69,539.425
316.209,530.9695
316.728,523.444
317.247,515.9185
317.766,508.393
318.285,499.7275
318.803,490.1445
319.322,480.543
319.84,470.96
320.359,461.538
320.877,452.214
321.395,442.89
321.913,433.566
322.431,423.5955
322.949,413.4945
323.467,403.3935
323.984,393.312
324.502,386.976
325.019,380.772
325.537,374.556
326.054,368.217
326.571,360.7205
327.088,353.224
327.605,345.7275
328.122,338.719
328.638,333.301
329.155,327.8725
329.671,322.4545
330.188,317.966
330.704,315.128
331.22,312.29
331.736,309.452
332.252,305.102
332.768,299.168
333.284,293.234
333.799,287.3115
334.315,284.37
334.83,283.34
335.346,282.308
335.861,281.278
336.376,278.18
336.891,274.3175
337.406,270.455
337.921,266.5925
338.436,264.474
338.95,262.675
339.465,260.8725
339.979,259.0735
340.494,258.506
341.008,257.992
341.522,257.478
342.036,256.964
342.55,256.45
343.064,255.936
343.577,255.423
344.091,254.8635
344.604,254.094
345.118,253.323
345.631,252.5535
346.144,252.36
346.657,253.6425
347.17,254.925
347.683,256.2075
348.196,257.392
348.708,258.416
349.221,259.442
349.733,260.466
350.246,262.23
350.758,264.79
351.27,267.35
351.782,269.91
352.294,271.441
352.806,272.209
353.318,272.977
353.829,273.7435
354.341,275.364
354.852,277.408
355.364,279.456
355.875,281.5
356.386,283.737
356.897,286.0365
357.408,288.336
357.919,290.6355
358.429,293.145
358.94,295.7
359.45,298.25
359.961,300.805
360.471,303.5905
360.981,306.3955
361.491,309.2005
362.001,312.007
362.511,315.577
363.021,319.147
363.53,322.71
364.04,326.18
364.549,328.4705
365.059,330.7655
365.568,333.056
366.077,335.539
366.586,339.102
367.095,342.665
367.604,346.228
368.113,349.904
368.621,353.968
369.13,358.04
369.638,362.104
370.147,366.176
370.655,370.24
371.163,374.304
371.671,378.368
372.179,382.432
372.687,386.496
373.194,390.552
373.702,394.616
374.209,398.463
374.717,402.019
375.224,405.568
375.731,409.117
376.238,412.785
376.745,416.5875
377.252,420.39
377.759,424.1925
378.265,428.12
378.772,432.176
379.278,436.224
379.785,440.28
380.291,443.3095
380.797,445.5865
381.303,447.8635
381.809,450.1405
382.315,453.0475
382.821,456.3365
383.326,459.619
383.832,462.908
384.337,467.5385
384.843,472.8515
385.348,478.154
385.853,483.4565
386.358,486.969
386.863,489.7465
387.368,492.524
387.872,495.296
388.377,498.8275
388.881,502.6075
389.386,506.395
389.89,510.175
390.394,513.561
390.898,516.837
391.402,520.113
391.906,523.389
392.41,526.05
392.914,528.57
393.417,531.085
393.92,533.6
394.424,535.272
394.927,536.781
395.43,538.29
395.933,539.799
396.436,542.834
396.939,546.1035
397.442,549.373
397.944,552.636
398.447,554.341
398.949,555.847
399.452,557.356
399.954,558.862
400.456,559.912
400.958,560.916
401.46,561.92
401.962,562.924
402.463,564.1575
402.965,565.4125
403.466,566.665
403.968,567.92
404.469,568.7035
404.97,569.455
405.471,570.2065
405.972,570.958
406.473,571.473
406.974,571.974
407.475,572.475
407.975,572.975
408.475,572.2875
408.976,571.536
409.476,570.786
409.976,570.036
410.476,568.572
410.976,567.072
411.476,565.572
411.976,564.072
412.475,562.3375
412.975,560.5875
413.474,558.841
413.974,557.091
414.473,553.689
414.972,550.196
415.471,546.703
415.97,543.21
416.469,539.4825
416.967,535.7475
417.466,532.005
417.964,528.27
418.463,523.1385
418.961,517.9095
419.459,512.6805
419.957,507.4515
420.455,502.905
420.953,498.423
421.451,493.941
421.949,489.459
422.446,481.195
422.944,472.48
423.441,463.7825
423.938,455.085
424.435,448.9975
424.932,443.282
425.429,437.5665
425.926,431.851
426.423,424.655
426.919,417.215
427.416,409.76
427.912,402.32
428.409,396.092
428.905,390.14
429.401,384.188
429.897,378.236
430.393,372.284
430.889,366.332
431.384,360.392
431.88,354.44
432.375,347.75
432.871,340.806
433.366,333.876
433.861,326.946
434.356,320.55
434.851,314.3625
435.346,308.175
435.841,301.9875
436.335,295.4775
436.83,288.795
437.324,282.126
437.819,275.4435
438.313,271.122
438.807,268.158
439.301,265.194
439.795,262.23
440.289,256.954
440.783,250.038
441.276,243.136
441.77,236.22
442.263,230.896
442.757,226.944
443.25,223
443.743,219.056
444.236,215.23
444.729,211.5325
445.222,207.835
445.714,204.145
446.207,200.344
446.699,196.408
447.192,192.464
447.684,188.528
448.176,184.504
448.668,180.322
449.16,176.14
449.652,171.958
450.144,167.992
450.635,164.555
451.127,161.111
451.618,157.674
452.11,154.395
452.601,151.6945
453.092,148.994
453.583,146.2935
454.074,143.556
454.565,140.61
455.056,137.664
455.546,134.724
456.037,131.889
456.527,130.419
457.018,128.946
457.508,127.476
457.998,126.006
458.488,122.584
458.978,119.154
459.468,115.724
459.957,112.301
460.447,110.659
460.936,109.192
461.426,107.722
461.915,106.255
462.404,104.6062
462.893,102.91915
463.382,101.2321
463.871,99.54505
464.36,98.02
464.848,96.556
465.337,95.089
465.825,93.625
466.314,92.2522
466.802,90.9346
467.29,89.617
467.778,88.2994
468.266,86.9286
468.754,85.5134
469.242,84.0982
469.729,82.6859
470.217,81.2273
470.704,79.7176
471.192,78.2048
471.679,76.6951
472.166,75.4095
472.653,74.55725
473.14,73.705
473.627,72.85275
474.113,72.1774
474.6,72.08
475.086,71.9828
475.573,71.8854
476.059,71.52565
476.545,69.26575
477.031,67.00585
477.517,64.74595
478.003,62.49295
478.489,61.35085
478.974,60.2111
479.46,59.069
479.945,57.92925
480.431,56.78715
480.916,55.6474
481.401,54.50765
481.886,53.3679
482.371,52.45075
482.856,51.602
483.341,50.75325
483.825,49.90625
484.31,49.6
484.794,49.6
485.279,49.6
485.763,49.6
486.247,49.6
486.731,49.6
487.215,49.6
487.699,49.6
488.182,49.1723
488.666,48.0349
489.149,46.89985
489.633,45.76245
490.116,44.9174
490.599,44.98985
491.082,45.0623
491.565,45.13475
492.048,45.1136
492.531,44.2442
493.013,43.3766
493.496,42.5072
493.978,41.6396
494.461,41.6
494.943,41.6
495.425,41.6
495.907,41.6
496.389,40.68585
496.871,39.55315
497.353,38.42045
497.834,37.2901
498.316,36.9
498.797,36.9
499.279,36.9
499.76,36.9
500.241,36.8518
500.722,36.7556
501.203,36.6594
501.684,36.5632
502.164,36.5902
502.645,36.85475
503.125,37.11875
503.606,37.3833
504.086,37.3979
504.566,36.2699
505.046,35.1419
505.526,34.0139
506.006,32.9
506.486,32.9
506.965,32.9
507.445,32.9
507.924,32.9
508.404,32.9
508.883,32.9
509.362,32.9
509.841,32.9
510.32,32.9
510.799,32.9
511.278,32.9
511.756,32.9
512.235,32.947
512.713,33.0426
513.192,33.1384
513.67,33.234
514.148,32.856
514.626,31.422
515.104,29.988
515.582,28.554
516.059,27.27345
516.537,27.05835
517.014,26.8437
517.492,26.6286
517.969,26.41395
518.446,26.4
518.923,26.4
519.4,26.4
519.877,26.4
520.354,26.3823
520.83,26.3585
521.307,26.33465
521.783,26.31085
522.26,26.898
522.736,27.9928
523.212,29.0876
523.688,30.1824
524.164,30.859
524.64,30.74
525.116,30.621
525.591,30.50225
526.067,30.4
526.542,30.4
527.018,30.4
527.493,30.4
527.968,30.4
528.443,30.3114
528.918,30.2164
529.393,30.1214
529.867,30.0266
530.342,29.8632
530.816,29.6736
531.291,29.4836
531.765,29.294
532.239,29.1044
532.713,28.9148
533.187,28.7252
533.661,28.5356
534.135,28.4
534.608,28.4
535.082,28.4
535.555,28.4
536.029,28.46525
536.502,29.5295
536.975,30.59375
537.448,31.658
537.921,32.72225
538.394,32.7424
538.867,32.5532
539.339,32.3644
539.812,32.1752
540.284,32.2704
540.757,32.5542
541.229,32.8374
541.701,33.1206
542.173,33.2135
542.645,32.9775
543.117,32.7415
543.588,32.506
544.06,32.387
544.531,33.06995
545.003,33.75435
545.474,34.4373
545.945,35.12025
546.416,35.0128
546.887,34.80085
547.358,34.5889
547.829,34.37695
548.299,35.0475
548.77,36.225
549.24,37.4
549.711,38.5775
550.181,39.27285
550.651,39.20235
551.121,39.13185
551.591,39.06135
552.061,38.94815
552.531,38.54865
553,38.15
553.47,37.7505
553.939,37.35185
554.409,38.6497
554.878,40.1974
555.347,41.7451
555.816,43.2928
556.285,43.6435
556.754,43.2214
557.222,42.8002
557.691,42.3781
558.159,42.39415
558.628,43.2618
559.096,44.1276
559.564,44.9934
560.032,45.7888
560.5,45.625
560.968,45.4612
561.436,45.2974
561.903,45.13395
562.371,45.9904
562.838,47.1112
563.306,48.2344
563.773,49.3552
564.24,50.584
564.707,51.91495
565.174,53.2459
565.641,54.57685
566.108,55.546
566.574,55.313
567.041,55.0795
567.507,54.8465
567.973,54.6135
568.44,56.074
568.906,57.6351
569.372,59.1962
569.838,60.7573
570.304,61.0264
570.769,60.6079
571.235,60.1885
571.7,59.77
572.166,60.0229
572.631,61.48765
573.096,62.9524
573.561,64.41715
574.026,65.8481
574.491,66.70835
574.956,67.5686
575.42,68.427
575.885,69.28725
576.349,70.1282
576.814,70.9652
577.278,71.8004
577.742,72.6356
578.206,73.4708
578.67,74.306
579.134,75.1412
579.598,75.9764
580.061,76.822
580.525,77.75
580.988,78.676
581.452,79.604
581.915,80.53
582.378,81.3615
582.841,82.17175
583.304,82.982
583.766,83.7905
584.229,85.2076
584.692,87.2448
585.154,89.2776
585.617,91.3148
586.079,93.08295
586.541,93.56805
587.003,94.05315
587.465,94.53825
587.927,95.02335
588.389,95.9947
588.85,97.055
589.312,98.1176
589.773,99.1779
590.235,100.91025
590.696,103.2844
591.157,105.65855
591.618,108.0327
592.079,110.4345
592.54,112.97
593.001,115.5055
593.461,118.0355
593.922,120.571
594.382,121.573
594.842,122.263
595.303,122.9545
595.763,123.6445
596.223,125.338
596.683,128.098
597.143,130.858
597.602,133.612
598.062,136.31
598.521,138.605
598.981,140.905
599.44,143.2
599.899,145.495
600.358,146.358
600.817,146.817
601.276,147.276
601.735,147.735
602.193,148.8685
602.652,150.934
603.11,152.995
603.569,155.0605
604.027,157.054
604.485,157.97
604.943,158.886
605.401,159.802
605.859,160.718
606.317,162.585
606.774,164.87
607.232,167.16
607.689,169.445
608.146,171.584
608.604,173.416
609.061,175.244
609.518,177.072
609.975,178.9
610.431,181.8015
610.888,184.772
611.345,187.7425
611.801,190.7065
612.258,192.903
612.714,194.499
613.17,196.095
613.626,197.691
614.082,199.533
614.538,202.497
614.994,205.461
615.449,208.4185
615.905,211.3825
616.36,213.08
616.816,214.448
617.271,215.813
617.726,217.178
618.181,219.267
618.636,222.452
619.091,225.637
619.546,228.822
620,232
620.455,234.73
620.909,237.454
621.363,240.178
621.818,242.908
622.272,245.768
622.726,248.719
623.18,251.67
623.633,254.6145
624.087,257.522
624.541,260.246
624.994,262.964
625.448,265.688
625.901,268.406
626.354,271.301
626.807,274.2455
627.26,277.19
627.713,280.1345
628.166,283.577
628.618,287.871
629.071,292.1745
629.523,296.4685
629.976,300.772
630.428,305.28
630.88,309.8
631.332,314.32
631.784,318.84
632.236,322.416
632.688,325.128
633.139,327.834
633.591,330.546
634.042,333.399
634.493,337.6835
634.945,341.9775
635.396,346.262
635.847,350.5465
636.298,355.576
636.748,360.976
637.199,366.388
637.65,371.8
638.1,377
638.551,381.51
639.001,386.01
639.451,390.51
639.901,395.01
640.351,399.51
640.801,404.01
641.251,408.51
641.7,413
642.15,417.725
642.599,422.8885
643.049,428.0635
643.498,433.227
643.947,438.3905
644.396,443.158
644.845,447.8725
645.294,452.587
645.743,457.3015
646.191,462.3875
646.64,468
647.088,473.6
647.536,479.2
647.985,484.8125
648.433,490.4125
648.881,496.0125
649.329,501.6125
649.776,507.2
650.224,512.352
650.672,517.056
651.119,521.7495
651.567,526.4535
652.014,531.189
652.461,537.2235
652.908,543.258
653.355,549.2925
653.802,555.327
654.249,561.6105
654.695,568.0775
655.142,574.559
655.588,581.026
656.035,587.42
656.481,592.772
656.927,598.124
657.373,603.476
657.819,608.828
658.265,614.0475
658.71,619.165
659.156,624.294
659.602,629.423
660.047,634.611
660.492,640.396
660.938,646.194
661.383,651.979
661.828,657.764
662.273,662.73
662.717,667.17
663.162,671.62
663.607,676.07
664.051,680.6375
664.495,686.1875
664.94,691.75
665.384,697.3
665.828,702.85
666.272,707.584
666.716,711.802
667.16,716.02
667.603,720.2285
668.047,724.376
668.49,727.92
668.934,731.472
669.377,735.016
669.82,738.56
670.263,741.841
670.706,744.942
671.149,748.043
671.591,751.137
672.034,754.187
672.477,756.6235
672.919,759.0545
673.361,761.4855
673.804,763.922
674.246,767.337
674.688,771.536
675.13,775.735
675.571,779.9245
676.013,784.091
676.455,787.185
676.896,790.272
677.337,793.359
677.779,796.453
678.22,799.21
678.661,801.6355
679.102,804.061
679.543,806.4865
679.984,808.912
680.424,812.604
680.865,816.3525
681.305,820.0925
681.746,823.841
682.186,827.488
682.626,831.008
683.066,834.528
683.506,838.048
683.946,841.568
684.385,844.8875
684.825,848.1875
685.265,851.4875
685.704,854.78
686.143,858.5015
686.583,863.1215
687.022,867.731
687.461,872.3405
687.9,876.95
688.338,881.549
688.777,886.1585
689.216,890.768
689.654,895.367
690.092,899.828
690.531,903.779
690.969,907.721
691.407,911.663
691.845,915.605
692.283,920.5375
692.721,926.0125
693.158,931.475
693.596,936.95
694.033,942.3795
694.471,947.4165
694.908,952.442
695.345,957.4675
695.782,962.493
696.219,968.1755
696.656,974.512
697.092,980.834
697.529,987.1705
697.966,993.507
698.402,1000.633
698.838,1007.827
699.274,1015.021
699.711,1022.2315
700.147,1028.9845
700.583,1034.8705
701.018,1040.743
701.454,1046.629
701.89,1052.515
702.325,1059.6875
702.76,1067.3
703.196,1074.93
703.631,1082.5425
704.066,1090.188
704.501,1098.018
704.936,1105.848
705.371,1113.678
705.805,1121.49
706.24,1128.12
706.674,1133.762
707.109,1139.417
707.543,1145.059
707.977,1150.701
708.411,1160.042
708.845,1169.59
709.279,1179.138
709.712,1188.664
710.146,1197.701
710.58,1205.73
711.013,1213.7405
711.446,1221.751
711.879,1229.7615
712.313,1237.634
712.746,1245.428
713.178,1253.204
713.611,1260.998
714.044,1268.66
714.477,1275.155
714.909,1281.635
715.341,1288.115
715.774,1294.61
716.206,1302.017
716.638,1310.441
717.07,1318.865
717.502,1327.289
717.933,1335.6935
718.365,1343.7525
718.797,1351.7445
719.228,1359.718
719.659,1367.6915
720.091,1375.4105
720.522,1382.091
720.953,1388.7715
721.384,1395.452
721.815,1402.1325
722.245,1409.0425
722.676,1416.154
723.106,1423.249
723.537,1430.3605
723.967,1437.4555
724.397,1442.1685
724.828,1446.694
725.258,1451.209
725.687,1455.7135
726.117,1460.404
726.547,1465.564
726.976,1470.712
727.406,1475.872
727.835,1481.02
728.265,1485.5175
728.694,1489.593
729.123,1493.6685
729.552,1497.744
729.981,1501.8195
730.409,1503.227
730.838,1504.514
731.267,1505.801
731.695,1507.085
732.123,1508.3075
732.552,1509.38
732.98,1510.45
733.408,1511.52
733.836,1512.59
734.264,1511.944
734.691,1510.236
735.119,1508.524
735.546,1506.816
735.974,1505.104
736.401,1501.5915
736.828,1497.962
737.255,1494.3325
737.682,1490.703
738.109,1486.8555
738.536,1482.372
738.963,1477.8885
739.389,1473.4155
739.816,1468.932
740.242,1463.128
740.669,1456.296
741.095,1449.48
741.521,1442.664
741.947,1435.848
742.373,1427.3535
742.798,1418.641
743.224,1409.908
743.65,1401.175
744.075,1391.9
744.5,1380
744.926,1368.072
745.351,1356.172
745.776,1344.272
746.201,1332.2715
746.626,1320.159
747.05,1308.075
747.475,1295.9625
747.899,1283.8785
748.324,1269.336
748.748,1254.072
749.172,1238.808
749.596,1223.544
750.02,1208.23
750.444,1191.906
750.868,1175.582
751.292,1159.258
751.715,1142.9725
752.139,1126.718
752.562,1110.644
752.986,1094.532
753.409,1078.458
753.832,1062.384
754.255,1046.6925
754.678,1031.253
755.1,1015.85
755.523,1000.4105
755.946,984.971
756.368,968.28
756.79,951.4
757.213,934.48
757.635,917.6
758.057,901.176
758.479,887.672
758.901,874.168
759.322,860.696
759.744,847.192
760.165,830.6675
760.587,809.3565
761.008,788.096
761.429,766.8355
761.85,745.575
762.271,729.7345
762.692,716.894
763.113,704.0535
763.534,691.213
763.954,678.403
764.375,665.5625
764.795,652.7525
765.216,639.912
765.636,627.102
766.056,613.844
766.476,597.674
766.896,581.504
767.315,565.3725
767.735,549.2025
768.155,534.04
768.574,520.632
768.993,507.224
769.413,493.784
769.832,480.376
770.251,468.3485
770.67,457.245
771.088,446.168
771.507,435.0645
771.926,423.961
772.344,412.54
772.763,401.0175
773.181,389.5225
773.599,378.0275
774.017,366.6175
774.435,357.2125
774.853,347.8075
775.271,338.4025
775.689,328.9975
776.106,320.145
776.524,312.83
776.941,305.5325
777.359,298.2175
777.776,290.92
778.193,283.2365
778.61,275.105
779.027,266.9735
779.443,258.8615
779.86,250.73
780.276,244.688
780.693,239.684
781.109,234.692
781.526,229.688
781.942,224.696
782.358,218.988
782.774,213.164
783.189,207.354
783.605,201.53
784.021,195.8005
784.436,191.858
784.852,187.906
785.267,183.9635
785.682,180.021
786.097,175.836
786.512,170.856
786.927,165.876
787.342,160.896
787.757,155.916
788.171,151.7175
788.586,148.605
789,145.5
789.414,142.395
789.829,139.2825
790.243,137.028
790.657,135.372
791.07,133.72
791.484,132.064
791.898,130.408
792.311,127.9785
792.725,125.2875
793.138,122.603
793.552,119.912
793.965,117.2275
794.378,114.165
794.791,111.0675
795.203,107.9775
795.616,104.88
796.029,101.8579
796.441,99.8391
796.854,97.8154
797.266,95.7966
797.678,93.7778
798.09,92.2
798.502,92.2
798.914,92.2
799.326,92.2
799.738,92.2
800.149,92.2
800.561,92.2
800.972,92.2
801.383,92.2
801.795,92.2
802.206,92.2
802.617,92.2
803.027,92.2
803.438,92.2
803.849,92.2
804.259,92.2
804.67,92.2
805.08,92.2
805.49,92.2
805.901,92.2
806.311,92.2
806.721,92.2
807.13,92.2
807.54,92.2
807.95,92.2
808.359,92.2
808.769,92.2
809.178,92.2
809.587,92.2
809.996,92.2
810.405,92.2
810.814,92.2
811.223,92.2
811.632,92.2
812.04,92.2
812.449,92.2
812.857,92.2
813.265,92.2
813.674,92.2
814.082,92.2
814.49,92.2
814.897,92.2
815.305,92.2
815.713,92.2
816.12,92.2
816.528,92.2
816.935,92.2
817.342,92.2
817.75,92.2
818.157,92.2
818.564,92.2
818.97,92.2
819.377,92.2
819.784,92.2
820.19,92.2
820.597,92.2
821.003,92.2
821.409,92.2
821.815,92.2
822.221,92.2
822.627,92.2
823.033,92.2
823.439,92.2
823.844,92.2
824.25,92.2
824.655,92.2
825.06,92.2
825.466,92.2
825.871,92.2
826.276,92.2
826.68,92.2
827.085,92.2
827.49,92.2
827.894,92.2
828.299,92.2
828.703,92.2
829.107,92.2
829.512,92.2
829.916,92.2
830.319,92.2
830.723,92.2
831.127,92.2
831.531,92.2
831.934,92.2
832.338,92.2
832.741,92.2
833.144,92.2
833.547,92.2
833.95,92.2
834.353,92.2
834.756,92.2
835.159,92.2
835.561,92.2
835.964,92.2
836.366,92.2
836.768,92.2
837.17,92.2
837.572,92.2
837.974,92.2
838.376,92.2
838.778,92.2
839.18,92.2
839.581,92.2
839.983,92.2
840.384,92.2
840.785,92.2
841.186,92.2
841.588,92.2
841.988,92.2
842.389,92.2
842.79,92.2
843.191,92.2
843.591,92.2
843.992,92.2
844.392,92.2
844.792,92.2
845.192,92.2
845.592,92.2
845.992,92.2
846.392,92.2
846.791,92.2
847.191,92.2
847.591,92.2
847.99,92.2
848.389,92.2
848.788,92.2
849.187,92.2
849.586,92.2
849.985,92.2
850.384,92.2
850.783,92.2
851.181,92.2
851.58,92.2
851.978,92.2
852.376,92.2
852.774,92.2
853.172,92.2
853.57,92.2
853.968,92.2
854.366,92.2
854.764,92.2
855.161,92.2
855.558,92.2
855.956,92.2
856.353,92.2
856.75,92.2
857.147,92.2
857.544,92.2
857.941,92.2
858.337,92.2
858.734,92.2
859.131,92.2
859.527,92.2
859.923,92.2
860.319,92.2
860.715,92.2
861.111,92.2
861.507,92.2
861.903,92.2
862.299,92.2
862.694,92.2
863.09,92.2
863.485,92.2
863.88,92.2
864.275,92.2
864.67,92.2
865.065,92.2
865.46,92.2
865.855,92.2
866.25,92.2
866.644,92.2
867.038,92.2
867.433,92.2
867.827,92.2
868.221,92.2
868.615,92.2
869.009,92.2
869.403,92.2
869.796,92.2
870.19,92.2
870.583,92.2
870.977,92.2
871.37,92.2
871.763,92.2
872.156,92.2
872.549,92.2
872.942,92.2
873.335,92.2
873.728,92.2
874.12,92.2
874.513,92.2
874.905,92.2
875.297,92.2
875.689,92.2
876.081,92.2
876.473,92.2
876.865,92.2
877.257,92.2
877.648,92.2
878.04,92.2
878.431,92.2
878.823,92.2
879.214,92.2
879.605,92.2
879.996,92.2
880.387,92.2
880.778,92.2
881.168,92.2
881.559,92.2
881.949,92.2
882.34,92.2
882.73,92.2
883.12,92.2
883.51,92.2
883.9,92.2
884.29,92.2
884.68,92.2
885.07,92.2
885.459,92.2
885.849,92.2
886.238,92.2
886.627,92.2
887.016,92.2
887.405,92.2
887.794,92.2
888.183,92.2
888.572,92.2
888.96,92.2
889.349,92.2
889.737,92.2
890.126,92.2
890.514,92.2
890.902,92.2
891.29,92.2
891.678,92.2
892.066,92.2
892.453,92.2
892.841,92.2
893.228,92.2
893.616,92.2
894.003,92.2
894.39,92.2
894.777,92.2
895.164,92.2
895.551,92.2
895.938,92.2
896.325,92.2
896.711,92.2
897.097,92.2
897.484,92.2
897.87,92.2
898.256,92.2
898.642,92.2
899.028,92.2
899.414,92.2
899.8,92.2
900.185,92.2
900.571,92.2
900.956,92.2
901.342,92.2
901.727,92.2
902.112,92.2
902.497,92.2
902.882,92.2
903.267,92.2
903.651,92.2
904.036,92.2
904.42,92.2
904.805,92.2
905.189,92.2
905.573,92.2
905.957,92.2
906.341,92.2
906.725,92.2
907.109,92.2
907.492,92.2
907.876,92.2
908.259,92.2
908.643,92.2
909.026,92.2
909.409,92.2
909.792,92.2
910.175,92.2
910.558,92.2
910.941,92.2
911.323,92.2
911.706,92.2
912.088,92.2
912.471,92.2
912.853,92.2
913.235,92.2
913.617,92.2
913.999,92.2
914.38,92.2
914.762,92.2
915.144,92.2
915.525,92.2
915.907,92.2
916.288,92.2
916.669,92.2
917.05,92.2
917.431,92.2
917.812,92.2
918.193,92.2
918.573,92.2
918.954,92.2
919.334,92.2
919.715,92.2
920.095,92.2
920.475,92.2
920.855,92.2
921.235,92.2
921.615,92.2
921.995,92.2
922.374,92.2
922.754,92.2
923.133,92.2
923.512,92.2
923.892,92.2
924.271,92.2
924.65,92.2
925.029,92.2
925.407,92.2
925.786,92.2
926.165,92.2
926.543,92.2
926.922,92.2
927.3,92.2
927.678,92.2
928.056,92.2
928.434,92.2
928.812,92.2
929.19,92.2
929.567,92.2
929.945,92.2
930.322,92.2
930.7,92.2
931.077,92.2
931.454,92.2
931.831,92.2
932.208,92.2
932.585,92.2
932.962,92.2
933.338,92.2
933.715,92.2
934.091,92.2
934.467,92.2
934.844,92.2
935.22,92.2
935.596,92.2
935.972,92.2
936.347,92.2
936.723,92.2
937.099,92.2
937.474,92.2
937.85,92.2
938.225,92.2
938.6,92.2
938.975,92.2
939.35,92.2
939.725,92.2
940.1,92.2
940.474,92.2
940.849,92.2
941.223,92.2
941.598,92.2
941.972,92.2
942.346,92.2
942.72,92.2
943.094,92.2
943.468,92.2
943.841,92.2
944.215,92.2
944.589,92.2
944.962,92.2
945.335,92.2
945.709,92.2
946.082,92.2
946.455,92.2
946.828,92.2
947.2,92.2
947.573,92.2
947.946,92.2
948.318,92.2
948.69,92.2
949.063,92.2
949.435,92.2
949.807,92.2
950.179,92.2
950.551,92.2
950.923,92.2
951.294,92.2
951.666,92.2
952.037,92.2
952.409,92.2
952.78,92.2
953.151,92.2
953.522,92.2
953.893,92.2
954.264,92.2
954.634,92.2
955.005,92.2
955.376,92.2
955.746,92.2
956.116,92.2
956.487,92.2
956.857,92.2
957.227,92.2
957.596,92.2
957.966,92.2
958.336,92.2
958.706,92.2
959.075,92.2
959.444,92.2
959.814,92.2
960.183,92.2
960.552,92.2
960.921,92.2
961.29,92.2
961.658,92.2
962.027,92.2
962.396,92.2
962.764,92.2
963.132,92.2
963.501,92.2
963.869,92.2
964.237,92.2
964.605,92.2
964.973,92.2
965.34,92.2
965.708,92.2
966.075,92.2
966.443,92.2
966.81,92.2
967.177,92.2
967.545,92.2
967.912,92.2
968.278,92.2
968.645,92.2
969.012,92.2
969.378,92.2
969.745,92.2
970.111,92.2
970.478,92.2
970.844,92.2
971.21,92.2
971.576,92.2
971.942,92.2
972.307,92.2
972.673,92.2
973.039,92.2
973.404,92.2
973.769,92.2
974.135,92.2
974.5,92.2
974.865,92.2
975.23,92.2
975.595,92.2
975.959,92.2
976.324,92.2
976.688,92.2
977.053,92.2
977.417,92.2
977.781,92.2
978.145,92.2
978.509,92.2
978.873,92.2
979.237,92.2
979.601,92.2
979.964,92.2
980.328,92.2
980.691,92.2
981.055,92.2
981.418,92.2
981.781,92.2
982.144,92.2
982.507,92.2
982.869,92.2
983.232,92.2
983.595,92.2
983.957,92.2
984.319,92.2
984.682,92.2
985.044,92.2
985.406,92.2
985.768,92.2
986.13,92.2
986.491,92.2
986.853,92.2
987.214,92.2
987.576,92.2
987.937,92.2
988.298,92.2
988.659,92.2
989.02,92.2
989.381,92.2
989.742,92.2
990.103,92.2
990.463,92.2
990.824,92.2
991.184,92.2
991.544,92.2
991.905,92.2
992.265,92.2
992.625,92.2
992.985,92.2
993.344,92.2
993.704,92.2
994.063,92.2
994.423,92.2
994.782,92.2
995.142,92.2
995.501,92.2
995.86,92.2
996.219,92.2
996.577,92.2
996.936,92.2
997.295,92.2
997.653,92.2
998.012,92.2
998.37,92.2
998.728,92.2
999.086,92.2
999.444,92.2
999.802,92.2
1000.16,92.2
1000.518,92.2
1000.875,92.2
1001.233,92.2
1001.59,92.2
1001.947,92.2
1002.305,92.2
1002.662,92.2
1003.019,92.2
1003.375,92.2
1003.732,92.2
1004.089,92.2
1004.445,92.2
1004.802,92.2
1005.158,92.2
1005.514,92.2
1005.871,92.2
1006.227,92.2
1006.583,92.2
1006.938,92.2
1007.294,92.2
1007.65,92.2
1008.005,92.2
1008.361,92.2
1008.716,92.2
1009.071,92.2
1009.426,92.2
1009.781,92.2
1010.136,92.2
1010.491,92.2
1010.846,92.2
1011.2,92.2
1011.555,92.2
1011.909,92.2
1012.263,92.2
1012.617,92.2
1012.971,92.2
1013.326,92.2
1013.679,92.2
1014.033,92.2
1014.387,92.2
1014.74,92.2
1015.094,92.2
1015.447,92.2
1015.8,92.2
1016.153,92.2
1016.507,92.2
1016.859,92.2
1017.212,92.2
1017.565,92.2
1017.918,92.2
1018.27,92.2
1018.622,92.2
1018.975,92.2
1019.327,92.2
1019.679,92.2
1020.031,92.2
1020.383,92.2
1020.735,92.2
1021.086,92.2
1021.438,92.2
1021.79,92.2
1022.141,92.2
1022.492,92.2
1022.843,92.2
1023.194,92.2
1023.545,92.2
1023.896,92.2
1024.247,92.2
1024.598,92.2
1024.948,92.2
1025.299,92.2
1025.649,92.2
1025.999,92.2
1026.349,92.2
1026.699,92.2
1027.049,92.2
1027.399,92.2
1027.749,92.2
1028.099,92.2
1028.448,92.2
1028.797,92.2
1029.147,92.2
1029.496,92.2
1029.845,92.2
1030.194,92.2
1030.543,92.2
1030.892,92.2
1031.24,92.2
1031.589,92.2
1031.938,92.2
1032.286,92.2
1032.634,92.2
1032.982,92.2
1033.33,92.2
1033.678,92.2
1034.026,92.2
1034.374,92.2
1034.722,92.2
1035.069,92.2
1035.417,92.2
1035.764,92.2
1036.111,92.2
1036.458,92.2
1036.805,92.2
1037.152,92.2
1037.499,92.2
1037.846,92.2
1038.193,92.2
1038.539,92.2
1038.885,92.2
1039.232,92.2
1039.578,92.2
1039.924,92.2
1040.27,92.2
1040.616,92.2
1040.962,92.2
1041.307,92.2
1041.653,92.2
1041.998,92.2
1042.344,92.2
1042.689,92.2
1043.034,92.2
1043.379,92.2
1043.724,92.2
1044.069,92.2
1044.414,92.2
1044.759,92.2
1045.103,92.2
1045.448,92.2
1045.792,92.2
1046.136,92.2
1046.48,92.2
1046.824,92.2
1047.168,92.2
1047.512,92.2
1047.856,92.2
1048.199,92.2
1048.543,92.2
1048.886,92.2
1049.23,92.2
1049.573,92.2
1049.916,92.2
1050.259,92.2
1050.602,92.2
1050.945,92.2
1051.287,92.2
1051.63,92.2
1051.972,92.2
1052.315,92.2
1052.657,92.2
1052.999,92.2
1053.341,92.2
1053.683,92.2
1054.025,92.2
1054.367,92.2
1054.708,92.2
1055.05,92.2
1055.391,92.2
1055.733,92.2
1056.074,92.2
1056.415,92.2
1056.756,92.2
1057.097,92.2
1057.438,92.2
1057.779,92.2
1058.119,92.2
1058.46,92.2
1058.8,92.2
1059.141,92.2
1059.481,92.2
1059.821,92.2
1060.161,92.2
1060.501,92.2
1060.841,92.2
1061.18,92.2
1061.52,92.2
1061.859,92.2
1062.199,92.2
1062.538,92.2
1062.877,92.2
1063.216,92.2
1063.555,92.2
1063.894,92.2
1064.233,92.2
1064.571,92.2
1064.91,92.2
1065.248,92.2
1065.587,92.2
1065.925,92.2
1066.263,92.2
1066.601,92.2
1066.939,92.2
1067.277,92.2
1067.615,92.2
1067.952,92.2
1068.29,92.2
1068.627,92.2
1068.964,92.2
1069.302,92.2
1069.639,92.2
1069.976,92.2
1070.313,92.2
1070.649,92.2
1070.986,92.2
1071.323,92.2
1071.659,92.2
1071.996,92.2
1072.332,92.2
1072.668,92.2
1073.004,92.2
1073.34,92.2
1073.676,92.2
1074.012,92.2
1074.347,92.2
1074.683,92.2
1075.018,92.2
1075.354,92.2
1075.689,92.2
1076.024,92.2
1076.359,92.2
1076.694,92.2
1077.029,92.2
1077.364,92.2
1077.698,92.2
1078.033,92.2
1078.367,92.2
1078.701,92.2
1079.036,92.2
1079.37,92.2
1079.704,92.2
1080.038,92.2
1080.371,92.2
1080.705,92.2
1081.039,92.2
1081.372,92.2
1081.705,92.2
1082.039,92.2
1082.372,92.2
1082.705,92.2
1083.038,92.2
1083.371,92.2
1083.704,92.2
1084.036,92.2
1084.369,92.2
1084.701,92.2
1085.034,92.2
1085.366,92.2
1085.698,92.2
1086.03,92.2
1086.362,92.2
1086.694,92.2
1087.025,92.2
1087.357,92.2
1087.689,92.2
1088.02,92.2
1088.351,92.2
1088.682,92.2
1089.014,92.2
1089.345,92.2
1089.676,92.2
1090.006,92.2
1090.337,92.2
1090.668,92.2
1090.998,92.2
1091.328,92.2
1091.659,92.2
1091.989,92.2
1092.319,92.2
1092.649,92.2
1092.979,92.2
1093.308,92.2
1093.638,92.2
1093.968,92.2
1094.297,92.2
1094.626,92.2
1094.956,92.2
1095.285,92.2
1095.614,92.2
1095.943,92.2
1096.272,92.2
1096.6,92.2
1096.929,92.2
1097.257,92.2
1097.586,92.2
1097.914,92.2
1098.242,92.2
1098.571,92.2
1098.899,92.2
1099.226,92.2
1099.554,92.2
1099.882,92.2
1100.209,92.2
1100.537,92.2
1100.864,92.2
1101.192,92.2
1101.519,92.2
1101.846,92.2
1102.173,92.2
1102.5,92.2
