,red absorbing state
Wavelength [nm],?r
215.709,18880.4725
216.248,18774.02
216.786,18667.765
217.325,18561.3125
217.863,18455.0575
218.401,18348.8025
218.94,18242.35
219.478,18136.095
220.016,18029.84
220.554,17923.585
221.091,17817.5275
221.629,17711.2725
222.167,17605.0175
222.704,17498.96
223.242,17392.705
223.779,17286.6475
224.316,17180.59
224.853,17074.5325
225.39,16968.475
225.927,16862.4175
226.464,16756.36
227,16650.5
227.537,16544.4425
228.073,16438.5825
228.61,16332.525
229.146,16226.665
229.682,16120.805
230.218,16014.945
230.754,15909.085
231.29,15803.225
231.826,15697.365
232.361,15591.7025
232.897,15485.8425
233.432,15380.18
233.967,15274.5175
234.503,15168.6575
235.038,15062.995
235.573,14957.3325
236.108,14851.67
236.642,14746.205
237.177,14640.5425
237.712,14534.88
238.246,14429.415
238.781,14323.7525
239.315,14218.2875
239.849,14112.8225
240.383,14007.3575
240.917,13901.8925
241.451,13796.4275
241.985,13690.9625
242.518,13585.695
243.052,13480.23
243.585,13374.9625
244.119,13269.4975
244.652,13164.23
245.185,13058.9625
245.718,12953.695
246.251,12848.4275
246.784,12743.16
247.317,12637.8925
247.849,12532.8225
248.382,12427.555
248.914,12322.485
249.447,12217.2175
249.979,12112.1475
250.511,12007.0775
251.043,11902.0075
251.575,11796.9375
252.107,11691.8675
252.638,11586.995
253.17,11481.925
253.701,11377.0525
254.233,11271.9825
254.764,11167.11
255.295,11062.2375
255.826,10957.365
256.357,10852.4925
256.888,10747.62
257.419,10642.7475
257.949,10538.0725
258.48,10433.2
259.01,10328.525
259.541,10223.6525
260.071,10118.9775
260.601,10014.3025
261.131,9909.6275
261.661,9804.9525
262.191,9700.2775
262.721,9595.6025
263.25,9491.125
263.78,9386.45
264.309,9281.9725
264.839,9177.2975
265.368,9072.82
265.897,8968.3425
266.426,8863.865
266.955,8759.3875
267.484,8654.91
268.012,8550.63
268.541,8446.1525
269.069,8341.8725
269.598,8237.395
270.126,8133.115
270.654,8028.835
271.182,7924.555
271.71,7820.275
272.238,7715.995
272.766,7611.715
273.293,7507.6325
273.821,7403.3525
274.348,7299.27
274.876,7194.99
275.403,7090.9075
275.93,6986.825
276.457,6882.7425
276.984,6778.66
277.511,6674.5775
278.038,6570.495
278.564,6466.61
279.091,6362.5275
279.617,6258.6425
280.144,6154.56
280.67,6050.675
281.196,5946.79
281.722,5842.905
282.248,5739.02
282.774,5635.135
283.299,5531.4475
283.825,5427.5625
284.35,5323.875
284.876,5219.99
285.401,5116.3025
285.926,5012.615
286.451,4908.9275
286.976,4805.24
287.501,4701.5525
288.026,4597.865
288.55,4494.375
289.075,4390.6875
289.599,4287.1975
290.124,4183.51
290.648,4080.02
291.172,3976.53
291.696,3873.04
292.22,3769.55
292.744,3666.06
293.268,3562.57
293.791,3459.2775
294.315,3355.7875
294.838,3252.495
295.362,3149.005
295.885,3045.7125
296.408,2942.42
296.931,2839.1275
297.454,2735.835
297.977,2632.5425
298.499,2529.4475
299.022,2426.155
299.544,2323.06
300.067,2219.7675
300.589,2116.6725
301.111,2013.5775
301.633,1910.4825
302.155,1823.895
302.677,1776.393
303.199,1728.891
303.72,1681.48
304.242,1637.003
304.763,1596.1045
305.285,1555.1275
305.806,1514.229
306.327,1484.7755
306.848,1462.112
307.369,1439.4485
307.89,1416.785
308.411,1387.751
308.931,1357.071
309.452,1326.332
309.972,1295.652
310.493,1276.0055
311.013,1257.0255
311.533,1238.0455
312.053,1218.509
312.573,1194.069
313.093,1169.629
313.612,1145.236
314.132,1120.532
314.651,1095.101
315.171,1069.621
315.69,1044.19
316.209,1021.058
316.728,1001.336
317.247,981.614
317.766,961.892
318.285,944.45
318.803,928.91
319.322,913.34
319.84,897.8
320.359,882.4095
320.877,867.1285
321.395,851.8475
321.913,836.5665
322.431,819.5615
322.949,802.2085
323.467,784.8555
323.984,767.536
324.502,761.98
325.019,756.81
325.537,751.63
326.054,746.433
326.571,741.0045
327.088,735.576
327.605,730.1475
328.122,725.207
328.638,721.853
329.155,718.4925
329.671,715.1385
330.188,713
330.704,713
331.22,713
331.736,713
332.252,714.512
332.768,717.608
333.284,720.704
333.799,723.794
334.315,729.095
334.83,735.79
335.346,742.498
335.861,749.193
336.376,756.452
336.891,763.9195
337.406,771.387
337.921,778.8545
338.436,786.758
338.95,794.725
339.465,802.7075
339.979,810.6745
340.494,818.41
341.008,826.12
341.522,833.83
342.036,841.684
342.55,851.45
343.064,861.216
343.577,870.963
344.091,882.3215
344.604,901.046
345.118,919.807
345.631,938.5315
346.144,954.664
346.657,964.1545
347.17,973.645
347.683,983.1355
348.196,994.782
348.708,1009.886
349.221,1025.0195
349.733,1040.1235
350.246,1057.348
350.758,1076.804
351.27,1096.26
351.782,1115.716
352.294,1133.702
352.806,1150.598
353.318,1167.494
353.829,1184.357
354.341,1202.4465
354.852,1221.098
355.364,1239.786
355.875,1258.4375
356.386,1275.159
356.897,1291.2555
357.408,1307.352
357.919,1323.4485
358.429,1339.5135
358.94,1355.61
359.45,1371.675
359.961,1387.7715
360.471,1400.0685
360.981,1412.0535
361.491,1424.0385
362.001,1436.016
362.511,1444.176
363.021,1452.336
363.53,1460.48
364.04,1468.32
364.549,1472.392
365.059,1476.472
365.568,1480.544
366.077,1485.2705
366.586,1493.669
367.095,1502.0675
367.604,1510.466
368.113,1517.678
368.621,1520.726
369.13,1523.78
369.638,1526.828
370.147,1529.8085
370.655,1532.6025
371.163,1535.3965
371.671,1538.1905
372.179,1540.4475
372.687,1541.7175
373.194,1542.985
373.702,1544.255
374.209,1548.344
374.717,1556.472
375.224,1564.584
375.731,1572.696
376.238,1577
376.745,1577
377.252,1577
377.759,1577
378.265,1578.1925
378.772,1580.474
379.278,1582.751
379.785,1585.0325
380.291,1583.963
380.797,1580.421
381.303,1576.879
381.809,1573.337
382.315,1569.6375
382.821,1565.8425
383.326,1562.055
383.832,1558.26
384.337,1548.238
384.843,1535.082
385.348,1521.952
385.853,1508.822
386.358,1497.661
386.863,1487.3085
387.368,1476.956
387.872,1466.624
388.377,1448.3545
388.881,1427.4385
389.386,1406.481
389.89,1385.565
390.394,1363.861
390.898,1341.937
391.402,1320.013
391.906,1298.089
392.41,1277.805
392.914,1257.897
393.417,1238.0285
393.92,1218.16
394.424,1189.984
394.927,1160.307
395.43,1130.63
395.933,1100.953
396.436,1076.726
396.939,1053.3365
397.442,1029.947
397.944,1006.604
398.447,981.65
398.949,956.55
399.452,931.4
399.954,906.3
400.456,882.568
400.958,858.974
401.46,835.38
401.962,811.786
402.463,792.1745
402.965,772.8475
403.466,753.559
403.968,734.232
404.469,717.7575
404.97,701.475
405.471,685.1925
405.972,668.91
406.473,652.864
406.974,636.832
407.475,620.8
407.975,604.8
408.475,593.7875
408.976,583.016
409.476,572.266
409.976,561.516
410.476,551.004
410.976,540.504
411.476,530.004
411.976,519.504
412.475,507.6
412.975,495.6
413.474,483.624
413.974,471.624
414.473,460.594
414.972,449.616
415.471,438.638
415.97,427.66
416.469,422.5445
416.967,417.8135
417.466,413.073
417.964,408.342
418.463,398.277
418.961,387.819
419.459,377.361
419.957,366.903
420.455,361.905
420.953,357.423
421.451,352.941
421.949,348.459
422.446,341.756
422.944,334.784
423.441,327.826
423.938,320.868
424.435,317.39
424.932,314.408
425.429,311.426
425.926,308.444
426.423,304.616
426.919,300.648
427.416,296.672
427.912,292.704
428.409,288.319
428.905,283.855
429.401,279.391
429.897,274.927
430.393,271.8385
430.889,269.1105
431.384,266.388
431.88,263.66
432.375,259.4375
432.871,254.7255
433.366,250.023
433.861,245.3205
434.356,244
434.851,244
435.346,244
435.841,244
436.335,241.655
436.83,238.19
437.324,234.732
437.819,231.267
438.313,230
438.807,230
439.301,230
439.795,230
440.289,226.9655
440.783,221.7785
441.276,216.602
441.77,211.415
442.263,207.2905
442.757,204.0795
443.25,200.875
443.743,197.6705
444.236,194.584
444.729,191.626
445.222,188.668
445.714,185.716
446.207,182.758
446.699,179.806
447.192,176.848
447.684,173.896
448.176,171.12
448.668,168.66
449.16,166.2
449.652,163.74
450.144,162
450.635,162
451.127,162
451.618,162
452.11,161.34
452.601,158.394
453.092,155.448
453.583,152.502
454.074,149.741
454.565,148.0225
455.056,146.304
455.546,144.589
456.037,142.7225
456.527,139.0475
457.018,135.365
457.508,131.69
457.998,128.015
458.488,128
458.978,128
459.468,128
459.957,128
460.447,125.9885
460.936,123.788
461.426,121.583
461.915,119.3825
462.404,119
462.893,119
463.382,119
463.871,119
464.36,116.84
464.848,113.912
465.337,110.978
465.825,108.05
466.314,107
466.802,107
467.29,107
467.778,107
468.266,106.202
468.754,104.738
469.242,103.274
469.729,101.813
470.217,101
470.704,101
471.192,101
471.679,101
472.166,100.3277
472.653,98.35535
473.14,96.383
473.627,94.41065
474.113,92.9
474.6,92.9
475.086,92.9
475.573,92.9
476.059,92.65515
476.545,90.63825
477.031,88.62135
477.517,86.60445
478.003,84.6
478.489,84.6
478.974,84.6
479.46,84.6
479.945,84.6
480.431,84.6
480.916,84.6
481.401,84.6
481.886,84.6
482.371,82.7821
482.856,80.4056
483.341,78.0291
483.825,75.6575
484.31,74.8
484.794,74.8
485.279,74.8
485.763,74.8
486.247,74.8
486.731,74.8
487.215,74.8
487.699,74.8
488.182,74.8
488.666,74.8
489.149,74.8
489.633,74.8
490.116,74.4462
490.599,72.97305
491.082,71.4999
491.565,70.02675
492.048,68.7
492.531,68.7
493.013,68.7
493.496,68.7
493.978,68.7
494.461,68.7
494.943,68.7
495.425,68.7
495.907,68.7
496.389,68.7
496.871,68.7
497.353,68.7
497.834,68.7
498.316,68.7
498.797,68.7
499.279,68.7
499.76,68.7
500.241,69.70015
500.722,71.6963
501.203,73.69245
501.684,75.6886
502.164,77
502.645,77
503.125,77
503.606,77
504.086,77
504.566,77
505.046,77
505.526,77
506.006,77
506.486,77
506.965,77
507.445,77
507.924,77
508.404,77
508.883,77
509.362,77
509.841,77
510.32,77
510.799,77
511.278,77
511.756,77
512.235,78.3395
512.713,81.0641
513.192,83.7944
513.67,86.519
514.148,88.7922
514.626,90.0589
515.104,91.3256
515.582,92.5923
516.059,94.18085
516.537,98.07655
517.014,101.9641
517.492,105.8598
517.969,109.74735
518.446,110
518.923,110
519.4,110
519.877,110
520.354,109.823
520.83,109.585
521.307,109.3465
521.783,109.1085
522.26,110.69
522.736,113.784
523.212,116.878
523.688,119.972
524.164,122.656
524.64,124.56
525.116,126.464
525.591,128.364
526.067,130
526.542,130
527.018,130
527.493,130
527.968,130
528.443,131.5505
528.918,133.213
529.393,134.8755
529.867,136.5345
530.342,139.736
530.816,143.528
531.291,147.328
531.765,151.12
532.239,154.7925
532.713,158.3475
533.187,161.9025
533.661,165.4575
534.135,168
534.608,168
535.082,168
535.555,168
536.029,168.261
536.502,172.518
536.975,176.775
537.448,181.032
537.921,185.289
538.394,189.152
538.867,192.936
539.339,196.712
539.812,200.496
540.284,204.698
540.757,209.1915
541.229,213.6755
541.701,218.1595
542.173,222.557
542.645,226.805
543.117,231.053
543.588,235.292
544.06,239.39
544.531,242.4515
545.003,245.5195
545.474,248.581
545.945,251.6425
546.416,255.744
546.887,259.983
547.358,264.222
547.829,268.461
548.299,275.083
548.77,283.09
549.24,291.08
549.711,299.087
550.181,304.6335
550.651,306.2785
551.121,307.9235
551.591,309.5685
552.061,311.976
552.531,319.496
553,327
553.47,334.52
553.939,342.024
554.409,348.317
554.878,354.414
555.347,360.511
555.816,366.608
556.285,373.845
556.754,381.818
557.222,389.774
557.691,397.747
558.159,404.431
558.628,408.652
559.096,412.864
559.564,417.076
560.032,421.224
560.5,424.5
560.968,427.776
561.436,431.052
561.903,434.321
562.371,441.1215
562.838,448.827
563.306,456.549
563.773,464.2545
564.24,472.32
564.707,480.726
565.174,489.132
565.641,497.538
566.108,505.026
566.574,509.453
567.041,513.8895
567.507,518.3165
567.973,522.7435
568.44,531.14
568.906,539.761
569.372,548.382
569.838,557.003
570.304,565.32
570.769,573.4575
571.235,581.6125
571.7,589.75
572.166,598.735
572.631,609.1975
573.096,619.66
573.561,630.1225
574.026,640.507
574.491,649.5745
574.956,658.642
575.42,667.69
575.885,676.7575
576.349,688.772
576.814,701.792
577.278,714.784
577.742,727.776
578.206,740.562
578.67,753.09
579.134,765.618
579.598,778.146
580.061,790.6775
580.525,803.4375
580.988,816.17
581.452,828.93
581.915,841.6625
582.378,856.096
582.841,870.912
583.304,885.728
583.766,900.512
584.229,914.7555
584.692,928.414
585.154,942.043
585.617,955.7015
586.079,970.3575
586.541,989.9925
587.003,1009.6275
587.465,1029.2625
587.927,1048.8975
588.389,1065.615
588.85,1081.75
589.312,1097.92
589.773,1114.055
590.235,1131.2825
590.696,1149.492
591.157,1167.7015
591.618,1185.911
592.079,1205.0685
592.54,1228.81
593.001,1252.5515
593.461,1276.2415
593.922,1299.983
594.382,1318.707
594.842,1336.417
595.303,1354.1655
595.763,1371.8755
596.223,1391.704
596.683,1413.784
597.143,1435.864
597.602,1457.896
598.062,1480.069
598.521,1502.7895
598.981,1525.5595
599.44,1548.28
599.899,1571.0005
600.358,1591.931
600.817,1612.3565
601.276,1632.782
601.735,1653.2075
602.193,1672.72
602.652,1691.08
603.11,1709.4
603.569,1727.76
604.027,1745.945
604.485,1761.975
604.943,1778.005
605.401,1794.035
605.859,1810.065
606.317,1827.5215
606.774,1845.573
607.232,1863.664
607.689,1881.7155
608.146,1898.088
608.604,1910.912
609.061,1923.708
609.518,1936.504
609.975,1949.3
610.431,1964.0075
610.888,1978.86
611.345,1993.7125
611.801,2008.5325
612.258,2021.192
612.714,2032.136
613.17,2043.08
613.626,2054.024
614.082,2064.681
614.538,2074.029
614.994,2083.377
615.449,2092.7045
615.905,2102.0525
616.36,2110.66
616.816,2119.096
617.271,2127.5135
617.726,2135.931
618.181,2144.8915
618.636,2154.674
619.091,2164.4565
619.546,2174.239
620,2184
620.455,2198.3325
620.909,2212.6335
621.363,2226.9345
621.818,2241.267
622.272,2254.616
622.726,2267.328
623.18,2280.04
623.633,2292.724
624.087,2305.523
624.541,2318.689
624.994,2331.826
625.448,2344.992
625.901,2358.129
626.354,2377.461
626.807,2398.5255
627.26,2419.59
627.713,2440.6545
628.166,2461.138
628.618,2480.574
629.071,2500.053
629.523,2519.489
629.976,2538.968
630.428,2565.038
630.88,2591.48
631.332,2617.922
631.784,2644.364
632.236,2674.228
632.688,2707.224
633.139,2740.147
633.591,2773.143
634.042,2805.394
634.493,2831.101
634.945,2856.865
635.396,2882.572
635.847,2908.279
636.298,2939.797
636.748,2974.222
637.199,3008.7235
637.65,3043.225
638.1,3077.5
638.551,3111.325
639.001,3145.075
639.451,3178.825
639.901,3212.575
640.351,3254.749
640.801,3299.299
641.251,3343.849
641.7,3388.3
642.15,3432.625
642.599,3476.4025
643.049,3520.2775
643.498,3564.055
643.947,3607.8325
644.396,3648.244
644.845,3688.205
645.294,3728.166
645.743,3768.127
646.191,3809.2405
646.64,3852.12
647.088,3894.904
647.536,3937.688
647.985,3980.5675
648.433,4038.29
648.881,4096.53
649.329,4154.77
649.776,4212.88
650.224,4264.624
650.672,4309.872
651.119,4355.019
651.567,4400.267
652.014,4445.26
652.461,4485.49
652.908,4525.72
653.355,4565.95
653.802,4606.18
654.249,4656.7435
654.695,4715.3925
655.142,4774.173
655.588,4832.822
656.035,4890.535
656.481,4935.581
656.927,4980.627
657.373,5025.673
657.819,5070.719
658.265,5110.3325
658.71,5146.155
659.156,5182.058
659.602,5217.961
660.047,5253.9245
660.492,5291.082
660.938,5328.323
661.383,5365.4805
661.828,5402.638
662.273,5433.107
662.717,5459.303
663.162,5485.558
663.607,5511.813
664.051,5536.683
664.495,5551.335
664.94,5566.02
665.384,5580.672
665.828,5595.324
666.272,5598.416
666.716,5594.198
667.16,5589.98
667.603,5585.7715
668.047,5580.5195
668.49,5566.565
668.934,5552.579
669.377,5538.6245
669.82,5524.67
670.263,5493.0945
670.706,5449.459
671.149,5405.8235
671.591,5362.2865
672.034,5318.481
672.477,5272.6305
672.919,5226.8835
673.361,5181.1365
673.804,5135.286
674.246,5071.827
674.688,4994.256
675.13,4916.685
675.571,4839.2895
676.013,4761.491
676.455,4676.185
676.896,4591.072
677.337,4505.959
677.779,4420.653
678.22,4342.14
678.661,4270.257
679.102,4198.374
679.543,4126.491
679.984,4054.608
680.424,3954.904
680.865,3853.915
681.305,3753.155
681.746,3652.166
682.186,3549.825
682.626,3445.325
683.066,3340.825
683.506,3236.325
683.946,3131.825
684.385,3036.225
684.825,2941.625
685.265,2847.025
685.704,2752.64
686.143,2661.687
686.583,2577.647
687.022,2493.798
687.461,2409.949
687.9,2326.1
688.338,2239.231
688.777,2151.2115
689.216,2063.192
689.654,1975.373
690.092,1890.222
690.531,1814.9335
690.969,1739.8165
691.407,1664.6995
691.845,1589.5825
692.283,1522.3895
692.721,1459.5365
693.158,1396.827
693.596,1333.974
694.033,1271.677
694.471,1214.299
694.908,1157.052
695.345,1099.805
695.782,1042.558
696.219,991.5525
696.656,946.76
697.092,902.07
697.529,857.2775
697.966,812.485
698.402,776.84
698.838,741.96
699.274,707.08
699.711,672.12
700.147,640.033
700.583,613.437
701.018,586.902
701.454,560.306
701.89,533.71
702.325,510.75
702.76,489
703.196,467.2
703.631,445.45
704.066,423.832
704.501,402.952
704.936,382.072
705.371,361.192
705.805,340.36
706.24,324.52
706.674,312.802
707.109,301.057
707.543,289.339
707.977,277.621
708.411,268.5745
708.845,259.6775
709.279,250.7805
709.712,241.904
710.146,232.423
710.58,221.79
711.013,211.1815
711.446,200.573
711.879,189.9645
712.313,184.183
712.746,180.286
713.178,176.398
713.611,172.501
714.044,168.516
714.477,163.753
714.909,159.001
715.341,154.249
715.774,149.486
716.206,145.764
716.638,143.172
717.07,140.58
717.502,137.988
717.933,135.402
718.365,131.715
718.797,127.827
719.228,123.948
719.659,120.069
720.091,116.363
720.522,113.346
720.953,110.329
721.384,107.312
721.815,104.295
722.245,103
722.676,103
723.106,103
723.537,103
723.967,103
724.397,100.83635
724.828,98.4874
725.258,96.1439
725.687,93.80585
726.117,92.1
726.547,92.1
726.976,92.1
727.406,92.1
727.835,92.1
728.265,90.60275
728.694,88.1789
729.123,85.75505
729.552,83.3312
729.981,80.90735
730.409,80.8
730.838,80.8
731.267,80.8
731.695,80.8
732.123,80.33875
732.552,78.73
732.98,77.125
733.408,75.52
733.836,73.915
734.264,73.3
734.691,73.3
735.119,73.3
735.546,73.3
735.974,73.3
736.401,73.3
736.828,73.3
737.255,73.3
737.682,73.3
738.109,73.3
738.536,73.3
738.963,73.3
739.389,73.3
739.816,73.3
740.242,73.3
740.669,73.3
741.095,73.3
741.521,73.3
741.947,73.3
742.373,73.3
742.798,73.3
743.224,73.3
743.65,73.3
744.075,73.3
744.5,73.3
744.926,73.3
745.351,73.3
745.776,73.3
746.201,72.1543
746.626,69.7318
747.05,67.315
747.475,64.8925
747.899,62.4757
748.324,61.9
748.748,61.9
749.172,61.9
749.596,61.9
750.02,61.9
750.444,61.9
750.868,61.9
751.292,61.9
751.715,61.9
752.139,61.9
752.562,61.9
752.986,61.9
753.409,61.9
753.832,61.9
754.255,61.9
754.678,61.9
755.1,61.9
755.523,61.9
755.946,61.9
756.368,61.9
756.79,61.9
757.213,61.9
757.635,61.9
758.057,61.9
758.479,61.9
758.901,61.9
759.322,61.9
759.744,61.9
760.165,61.9
760.587,61.9
761.008,61.9
761.429,61.9
761.85,61.9
762.271,61.9
762.692,61.9
763.113,61.9
763.534,61.9
763.954,61.9
764.375,61.9
764.795,61.9
765.216,61.9
765.636,61.9
766.056,61.9
766.476,61.9
766.896,61.9
767.315,61.9
767.735,61.9
768.155,60.96225
768.574,58.4273
768.993,55.89235
769.413,53.35135
769.832,50.8164
770.251,49.8
770.67,49.8
771.088,49.8
771.507,49.8
771.926,49.8
772.344,49.8
772.763,49.8
773.181,49.8
773.599,49.8
774.017,49.8
774.435,49.8
774.853,49.8
775.271,49.8
775.689,49.8
776.106,49.8
776.524,49.8
776.941,49.8
777.359,49.8
777.776,49.8
778.193,49.8
778.61,49.8
779.027,49.8
779.443,49.8
779.86,49.8
780.276,49.8
780.693,49.8
781.109,49.8
781.526,49.8
781.942,49.8
782.358,49.8
782.774,49.8
783.189,49.8
783.605,49.8
784.021,49.8
784.436,49.8
784.852,49.8
785.267,49.8
785.682,49.8
786.097,49.8
786.512,49.8
786.927,49.8
787.342,49.8
787.757,49.8
788.171,49.8
788.586,49.8
789,49.8
789.414,49.8
789.829,49.8
790.243,49.8
790.657,49.8
791.07,49.8
791.484,49.8
791.898,49.8
792.311,49.8
792.725,49.8
793.138,49.8
793.552,49.8
793.965,49.8
794.378,49.8
794.791,49.8
795.203,49.8
795.616,49.8
796.029,49.8
796.441,49.8
796.854,49.8
797.266,49.8
797.678,49.8
798.09,49.8
798.502,49.8
798.914,49.8
799.326,49.8
799.738,49.8
800.149,49.8
800.561,49.8
800.972,49.8
801.383,49.8
801.795,49.8
802.206,49.8
802.617,49.8
803.027,49.8
803.438,49.8
803.849,49.8
804.259,49.8
804.67,49.8
805.08,49.8
805.49,49.8
805.901,49.8
806.311,49.8
806.721,49.8
807.13,49.8
807.54,49.8
807.95,49.8
808.359,49.8
808.769,49.8
809.178,49.8
809.587,49.8
809.996,49.8
810.405,49.8
810.814,49.8
811.223,49.8
811.632,49.8
812.04,49.8
812.449,49.8
812.857,49.8
813.265,49.8
813.674,49.8
814.082,49.8
814.49,49.8
814.897,49.8
815.305,49.8
815.713,49.8
816.12,49.8
816.528,49.8
816.935,49.8
817.342,49.8
817.75,49.8
818.157,49.8
818.564,49.8
818.97,49.8
819.377,49.8
819.784,49.8
820.19,49.8
820.597,49.8
821.003,49.8
821.409,49.8
821.815,49.8
822.221,49.8
822.627,49.8
823.033,49.8
823.439,49.8
823.844,49.8
824.25,49.8
824.655,49.8
825.06,49.8
825.466,49.8
825.871,49.8
826.276,49.8
826.68,49.8
827.085,49.8
827.49,49.8
827.894,49.8
828.299,49.8
828.703,49.8
829.107,49.8
829.512,49.8
829.916,49.8
830.319,49.8
830.723,49.8
831.127,49.8
831.531,49.8
831.934,49.8
832.338,49.8
832.741,49.8
833.144,49.8
833.547,49.8
833.95,49.8
834.353,49.8
834.756,49.8
835.159,49.8
835.561,49.8
835.964,49.8
836.366,49.8
836.768,49.8
837.17,49.8
837.572,49.8
837.974,49.8
838.376,49.8
838.778,49.8
839.18,49.8
839.581,49.8
839.983,49.8
840.384,49.8
840.785,49.8
841.186,49.8
841.588,49.8
841.988,49.8
842.389,49.8
842.79,49.8
843.191,49.8
843.591,49.8
843.992,49.8
844.392,49.8
844.792,49.8
845.192,49.8
845.592,49.8
845.992,49.8
846.392,49.8
846.791,49.8
847.191,49.8
847.591,49.8
847.99,49.8
848.389,49.8
848.788,49.8
849.187,49.8
849.586,49.8
849.985,49.8
850.384,49.8
850.783,49.8
851.181,49.8
851.58,49.8
851.978,49.8
852.376,49.8
852.774,49.8
853.172,49.8
853.57,49.8
853.968,49.8
854.366,49.8
854.764,49.8
855.161,49.8
855.558,49.8
855.956,49.8
856.353,49.8
856.75,49.8
857.147,49.8
857.544,49.8
857.941,49.8
858.337,49.8
858.734,49.8
859.131,49.8
859.527,49.8
859.923,49.8
860.319,49.8
860.715,49.8
861.111,49.8
861.507,49.8
861.903,49.8
862.299,49.8
862.694,49.8
863.09,49.8
863.485,49.8
863.88,49.8
864.275,49.8
864.67,49.8
865.065,49.8
865.46,49.8
865.855,49.8
866.25,49.8
866.644,49.8
867.038,49.8
867.433,49.8
867.827,49.8
868.221,49.8
868.615,49.8
869.009,49.8
869.403,49.8
869.796,49.8
870.19,49.8
870.583,49.8
870.977,49.8
871.37,49.8
871.763,49.8
872.156,49.8
872.549,49.8
872.942,49.8
873.335,49.8
873.728,49.8
874.12,49.8
874.513,49.8
874.905,49.8
875.297,49.8
875.689,49.8
876.081,49.8
876.473,49.8
876.865,49.8
877.257,49.8
877.648,49.8
878.04,49.8
878.431,49.8
878.823,49.8
879.214,49.8
879.605,49.8
879.996,49.8
880.387,49.8
880.778,49.8
881.168,49.8
881.559,49.8
881.949,49.8
882.34,49.8
882.73,49.8
883.12,49.8
883.51,49.8
883.9,49.8
884.29,49.8
884.68,49.8
885.07,49.8
885.459,49.8
885.849,49.8
886.238,49.8
886.627,49.8
887.016,49.8
887.405,49.8
887.794,49.8
888.183,49.8
888.572,49.8
888.96,49.8
889.349,49.8
889.737,49.8
890.126,49.8
890.514,49.8
890.902,49.8
891.29,49.8
891.678,49.8
892.066,49.8
892.453,49.8
892.841,49.8
893.228,49.8
893.616,49.8
894.003,49.8
894.39,49.8
894.777,49.8
895.164,49.8
895.551,49.8
895.938,49.8
896.325,49.8
896.711,49.8
897.097,49.8
897.484,49.8
897.87,49.8
898.256,49.8
898.642,49.8
899.028,49.8
899.414,49.8
899.8,49.8
900.185,49.8
900.571,49.8
900.956,49.8
901.342,49.8
901.727,49.8
902.112,49.8
902.497,49.8
902.882,49.8
903.267,49.8
903.651,49.8
904.036,49.8
904.42,49.8
904.805,49.8
905.189,49.8
905.573,49.8
905.957,49.8
906.341,49.8
906.725,49.8
907.109,49.8
907.492,49.8
907.876,49.8
908.259,49.8
908.643,49.8
909.026,49.8
909.409,49.8
909.792,49.8
910.175,49.8
910.558,49.8
910.941,49.8
911.323,49.8
911.706,49.8
912.088,49.8
912.471,49.8
912.853,49.8
913.235,49.8
913.617,49.8
913.999,49.8
914.38,49.8
914.762,49.8
915.144,49.8
915.525,49.8
915.907,49.8
916.288,49.8
916.669,49.8
917.05,49.8
917.431,49.8
917.812,49.8
918.193,49.8
918.573,49.8
918.954,49.8
919.334,49.8
919.715,49.8
920.095,49.8
920.475,49.8
920.855,49.8
921.235,49.8
921.615,49.8
921.995,49.8
922.374,49.8
922.754,49.8
923.133,49.8
923.512,49.8
923.892,49.8
924.271,49.8
924.65,49.8
925.029,49.8
925.407,49.8
925.786,49.8
926.165,49.8
926.543,49.8
926.922,49.8
927.3,49.8
927.678,49.8
928.056,49.8
928.434,49.8
928.812,49.8
929.19,49.8
929.567,49.8
929.945,49.8
930.322,49.8
930.7,49.8
931.077,49.8
931.454,49.8
931.831,49.8
932.208,49.8
932.585,49.8
932.962,49.8
933.338,49.8
933.715,49.8
934.091,49.8
934.467,49.8
934.844,49.8
935.22,49.8
935.596,49.8
935.972,49.8
936.347,49.8
936.723,49.8
937.099,49.8
937.474,49.8
937.85,49.8
938.225,49.8
938.6,49.8
938.975,49.8
939.35,49.8
939.725,49.8
940.1,49.8
940.474,49.8
940.849,49.8
941.223,49.8
941.598,49.8
941.972,49.8
942.346,49.8
942.72,49.8
943.094,49.8
943.468,49.8
943.841,49.8
944.215,49.8
944.589,49.8
944.962,49.8
945.335,49.8
945.709,49.8
946.082,49.8
946.455,49.8
946.828,49.8
947.2,49.8
947.573,49.8
947.946,49.8
948.318,49.8
948.69,49.8
949.063,49.8
949.435,49.8
949.807,49.8
950.179,49.8
950.551,49.8
950.923,49.8
951.294,49.8
951.666,49.8
952.037,49.8
952.409,49.8
952.78,49.8
953.151,49.8
953.522,49.8
953.893,49.8
954.264,49.8
954.634,49.8
955.005,49.8
955.376,49.8
955.746,49.8
956.116,49.8
956.487,49.8
956.857,49.8
957.227,49.8
957.596,49.8
957.966,49.8
958.336,49.8
958.706,49.8
959.075,49.8
959.444,49.8
959.814,49.8
960.183,49.8
960.552,49.8
960.921,49.8
961.29,49.8
961.658,49.8
962.027,49.8
962.396,49.8
962.764,49.8
963.132,49.8
963.501,49.8
963.869,49.8
964.237,49.8
964.605,49.8
964.973,49.8
965.34,49.8
965.708,49.8
966.075,49.8
966.443,49.8
966.81,49.8
967.177,49.8
967.545,49.8
967.912,49.8
968.278,49.8
968.645,49.8
969.012,49.8
969.378,49.8
969.745,49.8
970.111,49.8
970.478,49.8
970.844,49.8
971.21,49.8
971.576,49.8
971.942,49.8
972.307,49.8
972.673,49.8
973.039,49.8
973.404,49.8
973.769,49.8
974.135,49.8
974.5,49.8
974.865,49.8
975.23,49.8
975.595,49.8
975.959,49.8
976.324,49.8
976.688,49.8
977.053,49.8
977.417,49.8
977.781,49.8
978.145,49.8
978.509,49.8
978.873,49.8
979.237,49.8
979.601,49.8
979.964,49.8
980.328,49.8
980.691,49.8
981.055,49.8
981.418,49.8
981.781,49.8
982.144,49.8
982.507,49.8
982.869,49.8
983.232,49.8
983.595,49.8
983.957,49.8
984.319,49.8
984.682,49.8
985.044,49.8
985.406,49.8
985.768,49.8
986.13,49.8
986.491,49.8
986.853,49.8
987.214,49.8
987.576,49.8
987.937,49.8
988.298,49.8
988.659,49.8
989.02,49.8
989.381,49.8
989.742,49.8
990.103,49.8
990.463,49.8
990.824,49.8
991.184,49.8
991.544,49.8
991.905,49.8
992.265,49.8
992.625,49.8
992.985,49.8
993.344,49.8
993.704,49.8
994.063,49.8
994.423,49.8
994.782,49.8
995.142,49.8
995.501,49.8
995.86,49.8
996.219,49.8
996.577,49.8
996.936,49.8
997.295,49.8
997.653,49.8
998.012,49.8
998.37,49.8
998.728,49.8
999.086,49.8
999.444,49.8
999.802,49.8
1000.16,49.8
1000.518,49.8
1000.875,49.8
1001.233,49.8
1001.59,49.8
1001.947,49.8
1002.305,49.8
1002.662,49.8
1003.019,49.8
1003.375,49.8
1003.732,49.8
1004.089,49.8
1004.445,49.8
1004.802,49.8
1005.158,49.8
1005.514,49.8
1005.871,49.8
1006.227,49.8
1006.583,49.8
1006.938,49.8
1007.294,49.8
1007.65,49.8
1008.005,49.8
1008.361,49.8
1008.716,49.8
1009.071,49.8
1009.426,49.8
1009.781,49.8
1010.136,49.8
1010.491,49.8
1010.846,49.8
1011.2,49.8
1011.555,49.8
1011.909,49.8
1012.263,49.8
1012.617,49.8
1012.971,49.8
1013.326,49.8
1013.679,49.8
1014.033,49.8
1014.387,49.8
1014.74,49.8
1015.094,49.8
1015.447,49.8
1015.8,49.8
1016.153,49.8
1016.507,49.8
1016.859,49.8
1017.212,49.8
1017.565,49.8
1017.918,49.8
1018.27,49.8
1018.622,49.8
1018.975,49.8
1019.327,49.8
1019.679,49.8
1020.031,49.8
1020.383,49.8
1020.735,49.8
1021.086,49.8
1021.438,49.8
1021.79,49.8
1022.141,49.8
1022.492,49.8
1022.843,49.8
1023.194,49.8
1023.545,49.8
1023.896,49.8
1024.247,49.8
1024.598,49.8
1024.948,49.8
1025.299,49.8
1025.649,49.8
1025.999,49.8
1026.349,49.8
1026.699,49.8
1027.049,49.8
1027.399,49.8
1027.749,49.8
1028.099,49.8
1028.448,49.8
1028.797,49.8
1029.147,49.8
1029.496,49.8
1029.845,49.8
1030.194,49.8
1030.543,49.8
1030.892,49.8
1031.24,49.8
1031.589,49.8
1031.938,49.8
1032.286,49.8
1032.634,49.8
1032.982,49.8
1033.33,49.8
1033.678,49.8
1034.026,49.8
1034.374,49.8
1034.722,49.8
1035.069,49.8
1035.417,49.8
1035.764,49.8
1036.111,49.8
1036.458,49.8
1036.805,49.8
1037.152,49.8
1037.499,49.8
1037.846,49.8
1038.193,49.8
1038.539,49.8
1038.885,49.8
1039.232,49.8
1039.578,49.8
1039.924,49.8
1040.27,49.8
1040.616,49.8
1040.962,49.8
1041.307,49.8
1041.653,49.8
1041.998,49.8
1042.344,49.8
1042.689,49.8
1043.034,49.8
1043.379,49.8
1043.724,49.8
1044.069,49.8
1044.414,49.8
1044.759,49.8
1045.103,49.8
1045.448,49.8
1045.792,49.8
1046.136,49.8
1046.48,49.8
1046.824,49.8
1047.168,49.8
1047.512,49.8
1047.856,49.8
1048.199,49.8
1048.543,49.8
1048.886,49.8
1049.23,49.8
1049.573,49.8
1049.916,49.8
1050.259,49.8
1050.602,49.8
1050.945,49.8
1051.287,49.8
1051.63,49.8
1051.972,49.8
1052.315,49.8
1052.657,49.8
1052.999,49.8
1053.341,49.8
1053.683,49.8
1054.025,49.8
1054.367,49.8
1054.708,49.8
1055.05,49.8
1055.391,49.8
1055.733,49.8
1056.074,49.8
1056.415,49.8
1056.756,49.8
1057.097,49.8
1057.438,49.8
1057.779,49.8
1058.119,49.8
1058.46,49.8
1058.8,49.8
1059.141,49.8
1059.481,49.8
1059.821,49.8
1060.161,49.8
1060.501,49.8
1060.841,49.8
1061.18,49.8
1061.52,49.8
1061.859,49.8
1062.199,49.8
1062.538,49.8
1062.877,49.8
1063.216,49.8
1063.555,49.8
1063.894,49.8
1064.233,49.8
1064.571,49.8
1064.91,49.8
1065.248,49.8
1065.587,49.8
1065.925,49.8
1066.263,49.8
1066.601,49.8
1066.939,49.8
1067.277,49.8
1067.615,49.8
1067.952,49.8
1068.29,49.8
1068.627,49.8
1068.964,49.8
1069.302,49.8
1069.639,49.8
1069.976,49.8
1070.313,49.8
1070.649,49.8
1070.986,49.8
1071.323,49.8
1071.659,49.8
1071.996,49.8
1072.332,49.8
1072.668,49.8
1073.004,49.8
1073.34,49.8
1073.676,49.8
1074.012,49.8
1074.347,49.8
1074.683,49.8
1075.018,49.8
1075.354,49.8
1075.689,49.8
1076.024,49.8
1076.359,49.8
1076.694,49.8
1077.029,49.8
1077.364,49.8
1077.698,49.8
1078.033,49.8
1078.367,49.8
1078.701,49.8
1079.036,49.8
1079.37,49.8
1079.704,49.8
1080.038,49.8
1080.371,49.8
1080.705,49.8
1081.039,49.8
1081.372,49.8
1081.705,49.8
1082.039,49.8
1082.372,49.8
1082.705,49.8
1083.038,49.8
1083.371,49.8
1083.704,49.8
1084.036,49.8
1084.369,49.8
1084.701,49.8
1085.034,49.8
1085.366,49.8
1085.698,49.8
1086.03,49.8
1086.362,49.8
1086.694,49.8
1087.025,49.8
1087.357,49.8
1087.689,49.8
1088.02,49.8
1088.351,49.8
1088.682,49.8
1089.014,49.8
1089.345,49.8
1089.676,49.8
1090.006,49.8
1090.337,49.8
1090.668,49.8
1090.998,49.8
1091.328,49.8
1091.659,49.8
1091.989,49.8
1092.319,49.8
1092.649,49.8
1092.979,49.8
1093.308,49.8
1093.638,49.8
1093.968,49.8
1094.297,49.8
1094.626,49.8
1094.956,49.8
1095.285,49.8
1095.614,49.8
1095.943,49.8
1096.272,49.8
1096.6,49.8
1096.929,49.8
1097.257,49.8
1097.586,49.8
1097.914,49.8
1098.242,49.8
1098.571,49.8
1098.899,49.8
1099.226,49.8
1099.554,49.8
1099.882,49.8
1100.209,49.8
1100.537,49.8
1100.864,49.8
1101.192,49.8
1101.519,49.8
1101.846,49.8
1102.173,49.8
1102.5,49.8
